Wavelength,vp85
451.996002,95.25
454.221985,95.25
456.447998,95.25
458.674011,95.25
460.899994,95.25
463.126007,95.25
465.35199,95.25
467.578003,95.25
469.803986,95.25
472.029999,95.25
474.256012,95.25
476.481995,95.25
478.708008,95.25
480.93399,95.25
483.160004,95.25
485.385986,95.25
487.612,95.25
489.838013,95.25
492.063995,95.25
494.290009,95.25
496.515991,95.25
498.742004,95.25
500.967987,95.25
503.194,95.25
505.420013,95.25
507.645996,95.25
509.872009,95.25
512.098022,95.25
514.323975,95.25
516.549988,95.25
518.776001,95.25
521.002014,95.25
523.228027,95.25
525.453979,95.25
527.679993,95.25
529.906006,95.25
532.132019,95.25
534.357971,95.25
536.583984,95.25
538.809998,95.25
541.036011,95.25
543.260986,95.25
545.487,95.25
547.713013,95.25
549.939026,95.25
552.164978,95.25
554.390991,95.25
556.617004,95.25
558.843018,95.25
561.06897,95.25
563.294983,95.25
565.520996,95.25
567.747009,95.25
569.973022,95.25
572.198975,95.25
574.424988,95.25
576.651001,95.25
578.877014,95.25
581.103027,95.25
583.328979,95.25
585.554993,95.25
587.781006,95.25
590.007019,95.25
592.232971,95.25
594.458984,95.25
596.684998,95.25
598.911011,95.25
601.137024,95.25
603.362976,95.25
605.588989,95.25
607.815002,95.25
610.041016,95.25
612.267029,95.25
614.492981,95.25
616.718994,95.25
618.945007,95.25
621.171021,95.25
623.396973,95.25
625.622986,95.25
627.848999,95.25
630.075012,95.25
632.301025,95.25
634.526978,95.25
636.752991,95.25
638.979004,95.25
641.205017,95.25
643.43103,95.25
645.656982,95.25
647.882996,95.25
650.109009,95.25
652.335022,95.25
654.560974,95.25
656.786987,95.25
659.013,95.25
661.239014,95.25
663.465027,95.25
665.690002,95.25
667.916016,95.25
670.142029,95.25
672.367981,95.25
674.593994,95.25
676.820007,95.25
679.046021,95.25
681.271973,95.25
683.497986,95.25
685.723999,95.25
687.950012,95.25
690.176025,95.25
692.401978,95.25
694.627991,95.25
696.854004,95.25
699.080017,95.25
701.30603,95.25
703.531982,95.25
705.757996,95.25
707.984009,95.25
710.210022,95.25
712.435974,95.25
714.661987,95.25
716.888,95.25
719.114014,95.25
721.340027,95.25
723.565979,95.25
725.791992,95.25
728.018005,95.25
730.244019,95.25
732.469971,95.25
734.695984,95.25
736.921997,95.25
739.14801,95.25
741.374023,95.25
743.599976,95.25
745.825989,95.25
748.052002,95.25
750.278015,95.25
752.504028,95.25
754.72998,95.25
756.955994,95.25
759.182007,95.25
761.40802,95.25
763.633972,95.25
765.859985,95.25
768.085999,95.25
770.312012,95.25
772.538025,95.25
774.763977,95.25
776.989014,95.25
779.216003,95.25
781.440979,95.25
783.666992,95.25
785.893005,95.25
788.119019,95.25
790.344971,95.25
792.570984,95.25
794.796997,95.25
797.02301,95.25
799.249023,95.25
801.474976,95.25
803.700989,95.25
805.927002,95.25
808.153015,95.25
810.379028,95.25
812.60498,95.25
814.830994,95.25
817.057007,95.25
819.28302,95.25
821.508972,95.25
823.734985,95.25
825.960999,95.25
828.187012,95.25
830.413025,95.25
832.638977,95.25
834.86499,95.25
837.091003,95.25
839.317017,95.25
841.54303,95.25
843.768982,95.25
845.994995,95.25
848.221008,95.25
850.447021,95.25
852.672974,95.25
854.898987,95.25
857.125,95.25
859.351013,95.25
861.577026,95.25
863.802979,95.25
866.028992,95.25
868.255005,95.25
870.481018,95.25
872.70697,95.25
874.932983,95.25
877.158997,95.25
879.38501,95.25
881.611023,95.25
883.836975,95.25
886.062988,95.25
888.288025,95.25
890.513977,95.25
892.73999,95.25
894.966003,95.25
897.192017,95.25
899.41803,95.25
957.5,96.88
967.072998,96.88
976.64502,96.88
986.218018,96.88
995.789978,96.88
1005.359985,96.88
1014.940002,96.88
1024.51001,96.88
1034.079956,96.88
1043.650024,96.88
1053.22998,96.88
1062.800049,96.88
1072.369995,96.88
1081.939941,96.88
1091.52002,96.88
1101.089966,96.88
1110.660034,96.88
1120.22998,96.88
1129.810059,96.88
1139.380005,96.88
1148.949951,96.88
1158.52002,96.88
1168.099976,96.88
1177.670044,96.88
1187.23999,96.88
1196.810059,96.88
1206.390015,96.88
1215.959961,96.88
1225.530029,96.88
1235.099976,96.88
1244.680054,96.88
1254.25,96.88
1263.819946,96.88
1273.390015,96.88
1282.969971,96.88
1292.540039,96.88
1302.109985,96.88
1311.680054,96.88
1321.26001,96.88
1330.829956,96.88
1436.119995,96.88
1445.699951,96.88
1455.27002,96.88
1464.839966,96.88
1474.410034,96.88
1483.98999,96.88
1493.560059,96.88
1503.130005,96.88
1512.699951,96.88
1522.280029,96.88
1531.849976,96.88
1541.420044,96.88
1550.98999,96.88
1560.569946,96.88
1570.140015,96.88
1579.709961,96.88
1589.280029,96.88
1598.859985,96.88
1608.430054,96.88
1618.0,96.88
1627.569946,96.88
1637.150024,96.88
1646.719971,96.88
1656.290039,96.88
1665.859985,96.88
1675.439941,96.88
1685.01001,96.88
1694.579956,96.88
1704.150024,96.88
1713.72998,96.88
1723.300049,96.88
1732.869995,96.88
1742.439941,96.88
1752.02002,96.88
1761.589966,96.88
1771.160034,96.88
1981.76001,96.88
1991.329956,96.88
2000.900024,96.88
2010.469971,96.88
2020.050049,96.88
2029.619995,96.88
2039.189941,96.88
2048.76001,96.88
2058.340088,96.88
2067.909912,96.88
2077.47998,96.88
2087.050049,96.88
2096.629883,96.88
2106.199951,96.88
2115.77002,96.88
2125.340088,96.88
2134.919922,96.88
2144.48999,96.88
2154.060059,96.88
2163.629883,96.88
2173.209961,96.88
2182.780029,96.88
2192.350098,96.88
2201.919922,96.88
2211.5,96.88
2221.070068,96.88
2230.639893,96.88
2240.209961,96.88
2249.790039,96.88
2259.360107,96.88
2268.929932,96.88
2278.5,96.88
2288.080078,96.88
2297.649902,96.88
2307.219971,96.88
2316.790039,96.88
